File: examples/InstrumentRawFiles/CTA.txt
[Parameters]
Operator="XLJ"
Laboratory="Cryoall"
Atmosphere="He"
Flow rate (l/h)="0"
Current for measurement=108
Seebeck coefficient=TRUE
Resistivity=TRUE
Material of wire="Platinum"
Thermal conductivity=0.000000
Sample name="Sample name"
Measurement data="/D/DATA/HJS/p-Mg3Sb2/Na0.005Sb1.5Bi0.5.txt"
Length x (mm)=5.650000
Width a (mm)=1.620000
Depth b (mm)=2.560000
Temperature program="20	26	1	1	1	20	5	3	30\0D\0A20	100	1	1	1	20	5	3	30\0D\0A20	150	1	1	1	20	5	3	30\0D\0A20	200	1	1	1	20	5	3	30\0D\0A20	250	1	1	1	20	5	3	30\0D\0A20	300	1	1	1	20	5	3	30\0D\0A20	350	1	1	1	20	5	3	30\0D\0A20	400	1	1	1	20	5	3	30\0D\0A20	450	1	1	1	20	5	3	30\0D\0A20	500	1	1	1	20	5	3	30\0D\0A"
Max.Temp. drift (C/min)=1.000000
Max.Gradient drift (C/min)=0.400000
Temperature-perameter=0.000000
Gradient-perameter=0.000000
processing Mark points=1

[Data]
Time of Evaluation="8/5/2020 3:23:47 PM"

Temperature(C)	Resistivity(u Ohm*m)	Rel. seebeck(uV/K)	Wire seebeck(uV/K)	Seebeck coefficient(uV/K)	Power factor(mW/m/K2)	Z value(1/K)	Correlation coefficient	Standard deviation(uV)
3.691110E+1	5.019850E+1	1.107031E+2	-5.532767E+0	1.094548E+2	2.386598E-1	0.000000E+0	9.994779E-1	3.277390E+0
1.010936E+2	5.522907E+1	1.315342E+2	-7.169367E+0	1.277212E+2	2.953643E-1	0.000000E+0	9.999461E-1	1.244498E+0
1.518815E+2	6.074947E+1	1.452344E+2	-8.342567E+0	1.394144E+2	3.199429E-1	0.000000E+0	9.999986E-1	2.240626E-1
2.034461E+2	6.699347E+1	1.617280E+2	-9.404767E+0	1.548938E+2	3.581259E-1	0.000000E+0	9.999958E-1	4.184429E-1
2.548858E+2	7.524267E+1	1.743618E+2	-1.038357E+1	1.663431E+2	3.677437E-1	0.000000E+0	9.999002E-1	2.092472E+0
3.050425E+2	8.323700E+1	1.897286E+2	-1.127140E+1	1.808257E+2	3.928291E-1	0.000000E+0	9.999730E-1	1.123100E+0
3.571773E+2	9.325957E+1	2.019893E+2	-1.215790E+1	1.921701E+2	3.959844E-1	0.000000E+0	9.999883E-1	7.401067E-1
4.081066E+2	1.030125E+2	2.151059E+2	-1.299827E+1	2.049350E+2	4.077014E-1	0.000000E+0	9.999727E-1	1.121247E+0
4.593130E+2	1.120441E+2	2.249949E+2	-1.381730E+1	2.137636E+2	4.078293E-1	0.000000E+0	9.999991E-1	2.012247E-1
5.106934E+2	1.167968E+2	2.253116E+2	-1.462397E+1	2.134730E+2	3.901710E-1	0.000000E+0	9.999891E-1	6.491333E-1